# wavelength_unit: nm
wavelength transmission
920 0
920.4 0
920.8 0
921.2 0
921.6 0
922 0
922.4 2.51484e-05
922.8 5.03874e-05
923.2 7.57172e-05
923.6 0.000101138
924 0.00012665
924.4 0.000888138
924.8 0.00165236
925.2 0.00241931
925.6 0.00318901
926 0.00396144
926.4 0.00454033
926.8 0.00512127
927.2 0.00570426
927.6 0.0062893
928 0.0068764
928.4 0.00689724
928.8 0.00691813
929.2 0.00693906
929.6 0.00696003
930 0.00698104
930.4 0.00666328
930.8 0.00634436
931.2 0.00602429
931.6 0.00570305
932 0.00538066
932.4 0.00522362
932.8 0.00506601
933.2 0.00490781
933.6 0.00474904
934 0.00458968
934.4 0.00499562
934.8 0.00540296
935.2 0.00581171
935.6 0.00622186
936 0.00663342
936.4 0.00775103
936.8 0.00887252
937.2 0.00999788
937.6 0.0111271
938 0.0122603
938.4 0.0147379
938.8 0.0172241
939.2 0.0197189
939.6 0.0222223
940 0.0247342
940.4 0.0301807
940.8 0.0356439
941.2 0.0411238
941.6 0.0466205
942 0.052134
942.4 0.0634527
942.8 0.074806
943.2 0.086194
943.6 0.0976168
944 0.109074
944.4 0.129597
944.8 0.150182
945.2 0.17083
945.6 0.191541
946 0.212314
946.4 0.242064
946.8 0.271904
947.2 0.301834
947.6 0.331855
948 0.361966
948.4 0.395442
948.8 0.429019
949.2 0.462696
949.6 0.496474
950 0.530352
950.4 0.559783
950.8 0.589266
951.2 0.618801
951.6 0.648388
952 0.678028
952.4 0.702402
952.8 0.726818
953.2 0.751277
953.6 0.775779
954 0.800324
954.4 0.829636
954.8 0.859001
955.2 0.888416
955.6 0.917883
956 0.947402
956.4 1.00221
956.8 1.05712
957.2 1.11212
957.6 1.16722
958 1.22242
958.4 1.34124
958.8 1.46027
959.2 1.57951
959.6 1.69896
960 1.81862
960.4 2.08156
960.8 2.34487
961.2 2.60855
961.6 2.8726
962 3.13702
962.4 3.70342
962.8 4.27062
963.2 4.83862
963.6 5.40742
964 5.97702
964.4 7.05151
964.8 8.12751
965.2 9.20502
965.6 10.284
966 11.3646
966.4 12.9751
966.8 14.5879
967.2 16.203
967.6 17.8203
968 19.4399
968.4 21.2677
968.8 23.0981
969.2 24.931
969.6 26.7665
970 28.6045
970.4 30.1709
970.8 31.7395
971.2 33.3102
971.6 34.8832
972 36.4583
972.4 37.4845
972.8 38.5122
973.2 39.5412
973.6 40.5717
974 41.6036
974.4 42.1465
974.8 42.6902
975.2 43.2346
975.6 43.7797
976 44.3255
976.4 44.5815
976.8 44.8378
977.2 45.0945
977.6 45.3515
978 45.6087
978.4 45.7252
978.8 45.8417
979.2 45.9584
979.6 46.0752
980 46.1922
980.4 46.2445
980.8 46.2969
981.2 46.3493
981.6 46.4017
982 46.4542
982.4 46.4673
982.8 46.4805
983.2 46.4936
983.6 46.5067
984 46.5198
984.4 46.5034
984.8 46.487
985.2 46.4706
985.6 46.4541
986 46.4375
986.4 46.4107
986.8 46.3838
987.2 46.3568
987.6 46.3298
988 46.3027
988.4 46.2967
988.8 46.2906
989.2 46.2844
989.6 46.2782
990 46.272
990.4 46.3083
990.8 46.3445
991.2 46.3808
991.6 46.4171
992 46.4534
992.4 46.5257
992.8 46.5981
993.2 46.6706
993.6 46.7431
994 46.8158
994.4 46.8969
994.8 46.9781
995.2 47.0594
995.6 47.1408
996 47.2222
996.4 47.283
996.8 47.3438
997.2 47.4046
997.6 47.4655
998 47.5265
998.4 47.5564
998.8 47.5864
999.2 47.6163
999.6 47.6463
1000 47.6762
1000.4 47.6656
1000.8 47.655
1001.2 47.6444
1001.6 47.6337
1002 47.6231
1002.4 47.6071
1002.8 47.591
1003.2 47.575
1003.6 47.5589
1004 47.5429
1004.4 47.5331
1004.8 47.5233
1005.2 47.5134
1005.6 47.5036
1006 47.4938
1006.4 47.4905
1006.8 47.4872
1007.2 47.4838
1007.6 47.4805
1008 47.4772
1008.4 47.4772
1008.8 47.4771
1009.2 47.4771
1009.6 47.477
1010 47.4769
1010.4 47.4811
1010.8 47.4852
1011.2 47.4893
1011.6 47.4934
1012 47.4975
1012.4 47.5148
1012.8 47.5321
1013.2 47.5495
1013.6 47.5668
1014 47.5842
1014.4 47.6239
1014.8 47.6636
1015.2 47.7034
1015.6 47.7432
1016 47.783
1016.4 47.8417
1016.8 47.9004
1017.2 47.9592
1017.6 48.018
1018 48.0768
1018.4 48.138
1018.8 48.1992
1019.2 48.2604
1019.6 48.3217
1020 48.383
1020.4 48.4263
1020.8 48.4695
1021.2 48.5128
1021.6 48.5561
1022 48.5994
1022.4 48.6159
1022.8 48.6324
1023.2 48.6489
1023.6 48.6654
1024 48.682
1024.4 48.6823
1024.8 48.6826
1025.2 48.6829
1025.6 48.6832
1026 48.6835
1026.4 48.6901
1026.8 48.6968
1027.2 48.7035
1027.6 48.7101
1028 48.7168
1028.4 48.7485
1028.8 48.7801
1029.2 48.8118
1029.6 48.8434
1030 48.8751
1030.4 48.9289
1030.8 48.9827
1031.2 49.0366
1031.6 49.0905
1032 49.1444
1032.4 49.1963
1032.8 49.2482
1033.2 49.3001
1033.6 49.352
1034 49.404
1034.4 49.4257
1034.8 49.4474
1035.2 49.4691
1035.6 49.4908
1036 49.5125
1036.4 49.4931
1036.8 49.4738
1037.2 49.4544
1037.6 49.4351
1038 49.4157
1038.4 49.3718
1038.8 49.3279
1039.2 49.2839
1039.6 49.2399
1040 49.1959
1040.4 49.1594
1040.8 49.123
1041.2 49.0865
1041.6 49.0499
1042 49.0134
1042.4 49.0122
1042.8 49.0111
1043.2 49.0099
1043.6 49.0088
1044 49.0076
1044.4 49.0468
1044.8 49.0859
1045.2 49.1251
1045.6 49.1643
1046 49.2036
1046.4 49.2622
1046.8 49.3209
1047.2 49.3797
1047.6 49.4384
1048 49.4972
1048.4 49.5417
1048.8 49.5862
1049.2 49.6307
1049.6 49.6753
1050 49.7198
1050.4 49.7174
1050.8 49.715
1051.2 49.7125
1051.6 49.7101
1052 49.7076
1052.4 49.6525
1052.8 49.5973
1053.2 49.5422
1053.6 49.4869
1054 49.4317
1054.4 49.3233
1054.8 49.2148
1055.2 49.1062
1055.6 48.9977
1056 48.889
1056.4 48.7161
1056.8 48.5431
1057.2 48.37
1057.6 48.1968
1058 48.0236
1058.4 47.7483
1058.8 47.4729
1059.2 47.1974
1059.6 46.9218
1060 46.6461
1060.4 46.2108
1060.8 45.7753
1061.2 45.3396
1061.6 44.9038
1062 44.4678
1062.4 43.8187
1062.8 43.1694
1063.2 42.5198
1063.6 41.87
1064 41.2199
1064.4 40.3401
1064.8 39.4599
1065.2 38.5794
1065.6 37.6986
1066 36.8174
1066.4 35.7477
1066.8 34.6777
1067.2 33.6072
1067.6 32.5363
1068 31.465
1068.4 30.3044
1068.8 29.1434
1069.2 27.9819
1069.6 26.82
1070 25.6576
1070.4 24.5359
1070.8 23.4138
1071.2 22.2913
1071.6 21.1683
1072 20.045
1072.4 19.0753
1072.8 18.1052
1073.2 17.1348
1073.6 16.164
1074 15.1929
1074.4 14.4304
1074.8 13.6676
1075.2 12.9046
1075.6 12.1412
1076 11.3776
1076.4 10.8162
1076.8 10.2546
1077.2 9.69278
1077.6 9.13075
1078 8.56851
1078.4 8.16611
1078.8 7.76356
1079.2 7.36085
1079.6 6.95799
1080 6.55498
1080.4 6.26662
1080.8 5.97816
1081.2 5.68958
1081.6 5.4009
1082 5.1121
1082.4 4.90178
1082.8 4.69137
1083.2 4.48089
1083.6 4.27032
1084 4.05968
1084.4 3.89919
1084.8 3.73863
1085.2 3.57802
1085.6 3.41735
1086 3.25661
1086.4 3.12728
1086.8 2.9979
1087.2 2.86847
1087.6 2.73899
1088 2.60946
1088.4 2.50096
1088.8 2.39241
1089.2 2.28382
1089.6 2.17519
1090 2.06652
1090.4 1.97521
1090.8 1.88387
1091.2 1.79249
1091.6 1.70108
1092 1.60963
1092.4 1.53487
1092.8 1.46009
1093.2 1.38527
1093.6 1.31042
1094 1.23555
1094.4 1.17662
1094.8 1.11767
1095.2 1.05869
1095.6 0.999696
1096 0.940677
1096.4 0.896232
1096.8 0.85177
1097.2 0.807292
1097.6 0.762796
1098 0.718284
1098.4 0.68611
1098.8 0.653923
1099.2 0.621725
1099.6 0.589514
1100 0.557291
1100.4 0.534915
1100.8 0.512536
1101.2 0.490152
1101.6 0.467765
1102 0.445372
1102.4 0.430412
1102.8 0.415448
1103.2 0.400482
1103.6 0.385513
1104 0.370541
1104.4 0.360701
1104.8 0.350859
1105.2 0.341015
1105.6 0.331169
1106 0.321322
1106.4 0.314777
1106.8 0.308231
1107.2 0.301683
1107.6 0.295134
1108 0.288584
1108.4 0.284064
1108.8 0.279544
1109.2 0.275023
1109.6 0.2705
1110 0.265977
1110.4 0.262497
1110.8 0.259017
1111.2 0.255535
1111.6 0.252053
1112 0.248571
1112.4 0.245098
1112.8 0.241625
1113.2 0.238152
1113.6 0.234677
1114 0.231202
1114.4 0.226759
1114.8 0.222315
1115.2 0.21787
1115.6 0.213424
1116 0.208977
1116.4 0.203275
1116.8 0.197572
1117.2 0.191868
1117.6 0.186163
1118 0.180457
1118.4 0.173957
1118.8 0.167456
1119.2 0.160954
1119.6 0.160954
